"Shalehills,"	2012	:	input	for	MTCLIM	v4.3				
MTCLIM	v4.3	OUTPUT	FILE	:	Mon	Jan	16	16:32:50	2012	
	yday	Tmax	Tmin	Tday	prcp	VPD	srad	daylen	SoilW	SoilT
		(degC)	(degC)	(degC)	(cm)	(Pa)	(Wm-2)	(s)	(%)	(deg C)
2008	1	4.44	-2.78	2.46	0.945	162.1754386	107.3576895	32928	21.48949074	1.98562999
2008	2	3.89	-5.56	1.29	0.02	187.1368421	242.3626217	32971	21.49145833	1.607185458
2008	3	-3.33	-11.11	-5.47	0	101.5438596	153.795681	33017	21.45696759	1.3010022
2008	4	-4.44	-10.56	-6.13	0	79.34736842	210.6844795	33066	21.30865741	0.892287663
2008	5	3.33	-9.44	-0.18	0	213.3263158	184.7731816	33119	21.21236111	0.270235081
2008	6	5.56	-0.56	3.88	0.09	153.9578947	216.999156	33175	21.27314815	0.271250161
2008	7	7.78	5	7.01	0.035	91.50175439	201.3661912	33234	21.44615741	1.212635815
2008	8	18.89	6.11	15.38	0.025	564.2736842	215.6980118	33296	21.48023148	3.084797986
2008	9	19.44	8.33	16.39	0.06	537.6280702	150.879084	33362	21.45861111	5.012588925
2008	10	11.67	-0.56	8.31	0	356.7017544	204.7227424	33431	21.39727273	4.952372752
2008	11	7.78	-0.56	5.49	2.36	221.4175439	101.7295765	33503	22.54208333	4.276718303
2008	12	10.56	2.78	8.42	0	250.8	220.641115	33579	22.02738426	3.770016462
2008	13	6.11	-2.22	3.82	0	199.2421053	135.333987	33657	21.67803241	3.74169895
2008	14	3.89	-2.22	2.21	0.12	138.4210526	111.5724702	33738	21.49481481	3.131347552
2008	15	2.78	-2.78	1.25	0	119.7754386	163.3214476	33822	21.371875	2.79769908
2008	16	-1.11	-2.78	-1.57	0	32.70175439	175.9470937	33909	21.28587963	2.654006957
2008	17	0	-3.33	-0.92	0.57	65.66315789	56.70431483	33999	21.18296296	2.149081294
2008	18	2.22	-2.22	1	0.33	96.6877193	269.1626188	34092	21.11175926	2.08925867
2008	19	2.78	-6.67	0.18	0	173.9508772	105.2589581	34187	21.098125	1.846934865
2008	20	-1.11	-12.22	-4.17	0	146.877193	205.0519469	34285	21.06296296	1.792562466
2008	21	-10	-13.89	-11.07	0	37.60701754	306.8234165	34386	21.79792541	1.344159896
2008	22	-5	-13.89	-7.44	0	98.44210526	78.45701528	34489	21.60078704	0.884443809
2008	23	2.78	-6.11	0.33	0	167.4526316	314.5387484	34595	21.4443287	0.295707785
2008	24	-2.78	-7.78	-4.15	0	76.32280702	179.3039219	34703	21.30884259	0.21810746
2008	25	-2.22	-10	-4.36	0	109.6210526	321.8284598	34814	21.19293981	0.171631818
2008	26	-3.89	-10	-5.57	0.04	82.45614035	144.0329554	34926	21.09273148	0.195194815
2008	27	-2.78	-8.33	-4.31	0	82.82807018	171.1772159	35042	21.0287037	0.486059027
2008	28	-0.56	-5	-1.78	0	80.60350877	214.1984129	35159	21.25090278	0.073528472
2008	29	2.22	-2.22	1	0.4	96.6877193	60.02176994	35278	21.39657407	0.1692792
2008	30	5.56	-1.11	3.72	1.5	164.3087719	331.9026836	35400	21.40518519	0.202406437
2008	31	0.56	-8.89	-2.04	0	149.9578947	310.5629592	35523	22.42706019	0.265287212
2008	32	1.11	-7.78	-1.33	2.715	149.9017544	46.30497349	35649	22.17990741	0.369245269
2008	33	2.78	-2.22	1.4	0.005	110.245614	73.32927102	35776	21.726875	0.386209188
2008	34	1.11	-5.56	-0.72	0	123.1789474	260.4022003	35905	21.4412963	0.652532606
2008	35	6.11	-5	3.06	0.02	238.077193	38.36863137	36036	21.2831713	0.609426353
2008	36	5	0.56	3.78	1.02	115.4596491	80.53543089	36169	21.19724537	0.578380984
2008	37	13.33	3.33	10.58	0.4	351.2280702	78.46806049	36303	21.13960648	0.110542851
2008	38	16.67	1.67	12.54	1.01	536.0421053	45.74489572	36440	21.26013889	0.488986987
2008	39	3.33	-1.11	2.11	0.06	103.8526316	123.2830467	36577	21.6375	1.73463888
2008	40	2.22	-2.22	1	0.78	96.6877193	138.0326833	36716	21.94969907	1.185453629
2008	41	4.44	-1.67	2.76	0.21	143.4385965	181.0377947	36857	21.83502315	0.704218438
2008	42	-1.11	-16.67	-5.39	0	170.5473684	361.1028676	36999	21.58965278	0.45277809
2008	43	-8.89	-16.67	-11.03	1.91	68.41403509	67.61667071	37143	21.385	0.308974305
2008	44	-3.33	-11.67	-5.63	0.57	106.2385965	88.37750422	37287	21.28481481	0.085021001
2008	45	0.56	-7.78	-1.74	0	138.5403509	386.4039751	37433	21.70886574	-0.142639665
2008	46	2.22	-7.78	-0.53	0	173.5438596	48.00670552	37581	23.15321759	-0.131321892
2008	47	2.78	-11.11	-1.04	0	213.5157895	360.9479711	37729	22.92185185	-0.060985867
2008	48	2.22	-10.56	-1.29	0.23	197.9649123	113.6486708	37879	22.09824074	0.361980076
2008	49	8.89	-0.56	6.29	0.44	257.7403509	149.1559073	38029	22.21229167	0.394781893
2008	50	8.33	-4.44	4.82	0	295.9298246	268.2594484	38181	22.92011574	0.657314366
2008	51	-1.11	-10	-3.56	0	128.9964912	278.4670527	38334	22.10608796	0.610389516
2008	52	-3.89	-12.78	-6.33	0	106.4491228	408.2062515	38487	21.76159722	0.357798417
2008	53	-2.22	-12.78	-5.13	1.05	132.2526316	81.46348533	38642	21.60048611	0.164884307
2008	54	-2.78	-5.56	-3.54	0.08	46.58245614	206.2048044	38798	21.49416667	0.305468332
2008	55	1.67	-8.89	-1.24	0	172.5333333	423.5156852	38954	21.40085648	0.376742508
2008	56	5	-8.89	1.18	0	247.7824561	333.055432	39111	21.34333333	0.253918849
2008	57	2.78	-5	0.64	0.79	153.2701754	48.759836	39269	21.50381944	0.3942552
2008	58	1.67	-3.33	0.29	0.01	102.5754386	224.413843	39428	21.51060185	0.219734508
2008	59	-2.22	-11.67	-4.82	0	124.0421053	367.6338697	39587	21.43414352	0.061989478
2008	60	1.67	-12.22	-2.15	1.565	197.9789474	241.4387501	39747	21.368125	-0.133515002
2008	61	1.67	-5.56	-0.32	0	135.3192982	267.2369008	39907	22.34085648	-0.113632266
2008	62	4.44	-5.56	1.69	0	200.9473684	350.9771139	40068	22.33810945	-0.025818963
2008	63	15.56	1.67	11.74	2.165	483.3684211	414.2868009	40230	22.04930556	0.29539159
2008	64	7.78	1.67	6.1	3.805	176.9894737	20.58868093	40392	21.88696677	0.217023958
2008	65	4.44	-2.78	2.46	0	162.1754386	93.01013439	40555	21.89434634	0.455785487
2008	66	7.78	-2.78	4.88	1.01	257.2491228	421.6082568	40718	21.81102587	1.20440219
2008	67	7.22	-1.11	4.93	2.03	213.8035088	111.9551392	40882	21.67168649	1.211442515
2008	68	3.33	-7.22	0.43	0	192.8140351	38.96711007	41046	21.59518784	1.713988617
2008	69	0	-6.67	-1.83	0	114.4140351	427.5723125	41210	21.50020396	1.472068237
2008	70	6.11	-3.89	3.36	0	223.8807018	307.5047976	41375	21.7035788	1.460636767
2008	71	6.11	1.11	4.74	0.01	136.2807018	266.7002889	41540	21.64562918	1.68601767
2008	72	4.44	-3.33	2.31	0	170.8210526	151.646709	41705	21.55450726	1.796911417
2008	73	13.33	-3.33	8.75	0.015	456.6035088	411.4743253	41870	21.48977873	2.226991283
2008	74	15	3.89	11.94	0.335	414.0701754	323.0455086	42036	21.4630278	2.814563958
2008	75	10	1.11	7.56	0	265.5368421	247.5309227	42202	21.45892327	3.845345237
2008	76	5.56	-3.89	2.96	0	208.5403509	163.6050793	42368	21.44033333	4.12131104
2008	77	7.78	-3.89	4.57	0.1	272.2807018	462.9329948	42534	21.89645833	3.718096093
2008	78	5.56	2.22	4.64	1.52	93.68421053	53.51101848	42701	22.28930556	3.481184735
2008	79	12.78	1.67	9.72	0.21	362.0140351	76.81797187	42867	22.07743056	4.023746465
2008	80	3.89	-2.78	2.06	0	147.677193	336.8751888	43033	21.87979167	4.278271897
2008	81	6.11	-2.78	3.67	1.19	207.922807	468.9779398	43200	21.73178241	4.021189435
2008	82	5.56	-6.11	2.35	0	235.8736842	285.277683	43366	21.64766204	3.507170728
2008	83	6.11	-5.56	2.9	0	244.554386	510.7787885	43533	21.56895833	3.147618268
2008	84	5.56	-4.44	2.81	0	216	376.0483535	43699	21.69400463	2.584041985
2008	85	9.44	-3.89	5.78	0	324.4350877	479.0154337	43865	22.40469907	2.91063536
2008	86	12.22	1.67	9.32	0.125	339.4175439	323.6223883	44032	22.23423611	4.120339087
2008	87	6.67	2.22	5.44	0.615	128.1684211	57.97117517	44198	22.09881944	4.161830667
2008	88	7.22	-2.78	4.47	0	240.3929825	70.15533215	44363	21.92657407	4.691102293
2008	89	7.22	-4.44	4.01	0	262.7508772	531.2154326	44529	21.78298611	4.07767142
2008	90	10	-4.44	6.03	0	348.8912281	497.9753216	44695	21.67805556	4.031716132
2008	91	13.33	4.44	10.89	0.155	325.3473684	225.2769728	44860	21.61011574	4.7298252
2008	92	21.11	1.11	15.61	0.005	779.5157895	172.8890394	45025	21.57571096	6.243084637
2008	93	8.33	-2.78	5.28	0	274.5263158	466.8634875	45190	22.65962963	6.069643875
2008	94	9.44	-2.22	6.24	0.9	302.6736842	317.4336773	45354	22.74506944	5.313235883
2008	95	11.67	3.33	9.38	0.19	281.5789474	112.3247726	45518	22.25185185	5.493004633
2008	96	12.22	4.44	10.08	0	277.5157895	277.5338981	45681	22.03847222	6.196472683
2008	97	15	4.44	12.1	0	401.4596491	405.2141564	45845	21.90851852	6.580615733
2008	98	8.33	5.56	7.57	0	94.65263158	126.1629535	46007	21.79386574	6.5787051
2008	99	14.44	6.11	12.15	0	332.6807018	261.7510234	46169	22.21143519	7.036100467
2008	100	16.11	6.11	13.36	0	414.5754386	256.6507954	46331	22.82449074	7.830930333
2008	101	20.56	6.67	16.74	0.74	649.7052632	479.4604878	46492	23.18872685	8.774187267
2008	102	20	11.67	17.71	0.19	459.0105263	143.7465115	46653	22.51930556	9.707549483
2008	103	18.33	3.89	14.36	0.225	581.7052632	457.5626642	46813	22.1287037	10.40617728
2008	104	8.33	0.56	6.19	0.015	218.6315789	169.5090905	46972	21.9420979	8.9754287
2008	105	10.56	-2.22	7.04	0	340.6947368	401.2751692	47131	21.86083333	7.85522545
2008	106	15	0	10.88	0	484.5333333	561.5878957	47289	21.97166667	7.511978233
2008	107	20	2.22	15.11	0	701.6982456	552.2627197	47446	22.93743056	7.946122683
2008	108	26.11	7.22	20.92	0	1022.021053	554.4629847	47602	22.5306713	8.8155773
2008	109	28.33	10.56	23.44	0	1130.484211	537.8415763	47758	22.28768519	10.29534077
2008	110	27.22	12.22	23.1	3.12	984.1192982	416.5839038	47912	22.11907407	11.3890745
2008	111	15.56	12.78	14.79	0.24	144.8140351	114.7453709	48066	22.02837963	11.5413375
2008	112	21.11	11.67	18.51	0	532.8070175	275.9571123	48219	22.43719907	11.70688788
2008	113	22.22	10	18.86	0	666.6666667	413.340583	48370	22.69224537	12.00612865
2008	114	23.89	10.56	20.22	0	768.9403509	420.1529441	48521	22.40719907	12.0702458
2008	115	22.22	11.11	19.17	0	629.8245614	519.813544	48671	23.31335648	12.2995505
2008	116	25	11.11	21.18	2.11	836.3719298	386.4334788	48819	22.7073913	12.23152833
2008	117	27.22	10.56	22.64	0.43	1034.203509	392.209431	48966	22.3555787	13.41836817
2008	118	19.44	7.22	16.08	2.13	568.5824561	410.8230982	49112	22.18006944	13.50048467
2008	119	11.11	5	9.43	0	217.0666667	85.5561443	49257	22.71458333	11.37513248
2008	120	13.89	2.78	10.83	0	387.2912281	439.6441772	49401	22.82685185	10.86729995
2008	121	12.22	3.33	9.78	0	304.245614	404.569364	49543	22.75789352	9.752937033
2008	122	15	3.89	11.94	0	414.0701754	256.0311173	49683	22.59643519	9.2384638
2008	123	23.33	9.44	19.51	0.66	761.6350877	312.3472894	49823	22.70645833	10.52405147
2008	124	19.44	10	16.85	0.82	484.7017544	286.4218775	49960	22.85555556	12.1339625
2008	125	16.67	2.78	12.85	0	516.7719298	382.8252355	50096	22.71256944	11.81545783
2008	126	20.56	5.56	16.43	0	674.7789474	539.717107	50231	22.37291667	11.38136205
2008	127	22.78	8.33	18.81	0	752.9473684	415.900959	50363	22.12104167	11.7097435
2008	128	26.11	12.78	22.44	0.21	870.1122807	487.7954253	50495	21.91599537	12.30688567
2008	129	21.11	6.67	17.14	0.99	684.2807018	207.1066688	50624	21.72974537	13.34712938
2008	130	12.22	7.78	11	0	179.5649123	103.0653977	50751	21.55909722	12.22579976
2008	131	18.33	6.67	15.12	0.05	518.9263158	380.0835348	50877	21.36300926	11.66244284
2008	132	16.11	1.11	11.99	2.35	518.3789474	223.787451	51000	21.14555556	10.80254022
2008	133	10	2.22	7.86	0	242.4	136.5087242	51122	20.89673611	9.519620525
2008	134	22.22	7.22	18.1	0.015	743.0105263	573.336625	51241	20.7080787	10.27582963
2008	135	21.67	10	18.46	0.115	628.645614	286.9728961	51358	20.488125	11.08212859
2008	136	22.78	8.89	18.96	1.31	738.0280702	412.6879141	51473	20.18030093	12.17108912
2008	137	11.11	5.56	9.58	0.02	201.5017544	64.68117319	51586	19.88564815	11.44878784
2008	138	18.89	6.67	15.53	0.61	550.5192982	215.1321547	51697	20.28671296	10.63123288
2008	139	15.56	4.44	12.5	0.05	428.0421053	236.0624843	51805	21.30733796	10.64606126
2008	140	12.78	4.44	10.49	0.98	301.1508772	337.4939703	51910	21.38171296	10.07822076
2008	141	12.78	6.11	10.94	0.47	256.322807	149.0528896	52014	21.04041667	9.430446804
2008	142	15	6.11	12.56	0.12	359.3473684	291.2318379	52114	20.63352778	9.436310221
2008	143	13.33	6.67	11.5	0	264.9403509	377.579158	52212	19.92820059	10.21896287
2008	144	18.89	6.11	15.38	0	564.2736842	488.9290166	52308	19.47409722	10.17391217
2008	145	21.67	6.11	17.39	0	731.9578947	530.3457634	52400	19.35071759	10.89386005
2008	146	23.89	9.44	19.92	0	801.9157895	583.9905125	52490	19.14247685	11.36455562
2008	147	29.44	13.89	25.17	0	1131.242105	490.009624	52577	18.84231481	12.47733855
2008	148	27.22	7.22	21.72	0	1109.866667	328.5980403	52662	18.68746269	14.140318
2008	149	19.44	6.11	15.78	0	596.3157895	585.2339268	52743	18.58342183	13.2459027
2008	150	24.44	8.33	20.01	0	871.8105263	570.3446546	52821	19.40509542	12.40674173
2008	151	26.11	12.22	22.29	0.22	889.5859649	459.8854545	52896	19.99579431	12.74551615
2008	152	27.22	17.78	24.62	0	745.4877193	352.9051143	52969	19.86474681	14.60018417
2008	153	25.56	10	21.28	0	913.1789474	486.2564576	53038	19.73629431	15.01848667
2008	154	25	13.33	21.79	0	757.5298246	542.0388867	53103	19.60066566	14.227775
2008	155	27.78	15	24.26	2.01	930.4982456	379.1178573	53166	17.35676332	14.39901567
2008	156	21.11	17.78	20.19	0.15	232.4	90.04834194	53225	17.13459981	15.3095195
2008	157	28.33	19.44	25.89	0	758.1894737	345.9921548	53281	17.00337158	16.57308333
2008	158	32.78	20.56	29.42	0	1181.515789	525.1338733	53334	16.78678176	18.206381
2008	159	33.33	23.33	30.58	0	1067.480702	518.1060825	53383	16.46771746	18.92441467
2008	160	32.22	22.78	29.62	0	969.2842105	429.2805031	53429	16.42818612	19.4773175
2008	161	33.89	21.67	30.53	1.09	1251.333333	544.4346842	53471	17.19902954	19.88906983
2008	162	32.22	15.56	27.64	0.11	1357.122807	410.0632218	53510	17.29459524	19.485167
2008	163	28.33	16.11	24.97	0	934.1684211	575.5212714	53546	17.32027778	18.56332033
2008	164	30.56	17.78	27.04	0.04	1079.873684	545.3852399	53577	17.25837963	18.24805733
2008	165	31.67	19.44	28.31	0.065	1115.017544	437.034623	53606	17.14946759	18.53325
2008	166	25	15.56	22.4	0.005	661.0736842	181.2395301	53630	16.96393519	18.82461883
2008	167	27.22	16.67	24.32	0.68	803.0315789	548.206464	53651	16.74037037	18.45423867
2008	168	26.67	13.89	23.15	0.82	875.8596491	355.7539921	53669	16.6419213	17.66651343
2008	169	19.44	13.33	17.76	0.14	352.6877193	299.6079692	53682	18.08944444	16.25672327
2008	170	18.89	8.89	16.14	0	487.4385965	230.6295793	53693	18.39039627	15.3308354
2008	171	20	11.11	17.56	0	480.1614035	342.9473361	53699	17.9887963	14.35160097
2008	172	26.11	13.33	22.6	0	849.5789474	471.4200588	53702	17.60486111	15.06330377
2008	173	28.33	15	24.67	1.01	982.3789474	515.138638	53701	17.64497685	16.07452205
2008	174	26.67	15.56	23.61	0.03	805.2491228	539.7242811	53696	17.32439815	17.06005004
2008	175	25.56	12.78	22.04	0.1	823.9719298	482.1374236	53688	16.87803241	16.96363521
2008	176	25	13.33	21.79	0	757.5298246	423.956815	53676	16.5050463	16.27542573
2008	177	27.22	15	23.86	0.15	879.6982456	441.7024282	53661	16.22671296	16.29200684
2008	178	28.33	18.33	25.58	1.2	822.3719298	305.0543614	53641	16.05939815	18.34277355
2008	179	26.67	19.44	24.68	0	595.7403509	276.8843134	53619	15.79034946	18.27080027
2008	180	28.89	18.89	26.14	0.04	847.0035088	350.0097029	53592	15.35703629	18.97255817
2008	181	27.22	17.22	24.47	0.14	774.9263158	308.2490012	53562	14.96418215	18.77389167
2008	182	25.56	15.56	22.81	0	708.1122807	417.4633376	53529	14.63065533	18.435032
2008	183	22.78	13.33	20.18	0	584.9122807	300.6619244	53491	14.3334359	17.59915983
2008	184	27.22	15	23.86	0.02	879.6982456	560.1282857	53451	14.07881793	17.18966667
2008	185	25.56	18.33	23.57	0.02	561.3684211	231.8553748	53407	16.1862963	17.19759633
2008	186	23.89	17.78	22.21	2.12	450.7157895	199.8697127	53359	15.73222222	17.5713325
2008	187	24.44	16.11	22.15	0	587.5438596	256.6897839	53308	15.37212121	17.748452
2008	188	27.78	17.22	24.88	0.01	827.3754386	370.6546738	53254	16.50761574	18.25809733
2008	189	27.22	18.89	24.93	0	682.4421053	297.1433942	53196	16.73652778	19.04244917
2008	190	30.56	18.89	27.35	0.44	1022.140351	501.4656629	53135	16.00342593	19.66559717
2008	191	26.67	16.11	23.76	0	779.2982456	190.4580091	53071	15.61800926	19.69652967
2008	192	26.67	15	23.46	0	829.9649123	565.0716361	53004	15.19763889	19.18777867
2008	193	28.33	16.67	25.12	0	908.1964912	471.9697353	52933	14.82013889	18.553595
2008	194	31.11	19.44	27.9	0.33	1052.449123	520.0338063	52860	14.54576389	19.39912633
2008	195	27.78	17.22	24.88	0	827.3754386	355.3178675	52783	14.51840278	20.28596433
2008	196	26.67	15.56	23.61	0	805.2491228	522.2584862	52703	14.42659722	19.53574683
2008	197	28.33	16.11	24.97	0	934.1684211	560.3976055	52620	14.269375	18.58602283
2008	198	31.11	17.22	27.29	0	1166.105263	557.7513277	52535	14.08414352	18.85892847
2008	199	31.67	20	28.46	0.12	1083.508772	438.8623918	52446	13.90543981	19.76299733
2008	200	32.22	21.11	29.17	0	1081.25614	413.3001242	52355	13.77634033	20.3687942
2008	201	31.67	20	28.46	0.385	1083.508772	517.5354854	52261	13.77893519	20.67772447
2008	202	32.22	18.89	28.56	0.005	1208.421053	409.5625719	52164	13.77561772	20.33071987
2008	203	29.44	18.33	26.39	0.4	934.6666667	405.7065783	52065	13.64523148	20.47445883
2008	204	28.89	19.44	26.29	1.29	814.6315789	414.7642553	51963	13.52527778	20.400245
2008	205	23.33	15	21.04	1.04	552.8491228	134.2814223	51858	13.40064815	19.40701117
2008	206	25	14.44	22.1	0	711.6350877	347.1107418	51751	13.29393519	18.276037
2008	207	27.78	15.56	24.42	0	906.5894737	534.5950002	51642	13.1918287	18.20506006
2008	208	28.33	18.33	25.58	0	822.3719298	433.7922375	51530	13.20675926	18.77637125
2008	209	27.22	15.56	24.01	0	855.3824561	487.9174592	51417	14.04303241	19.465443
2008	210	28.89	17.22	25.68	0	935.6210526	493.0210721	51300	13.51243056	18.86356117
2008	211	30	17.78	26.64	0.52	1021.207018	475.7485444	51182	13.22805556	19.39652367
2008	212	29.44	18.33	26.39	0	934.6666667	331.2877091	51062	13.09493056	19.3130665
2008	213	28.89	17.78	25.83	0	907.4596491	465.3030487	50939	13.0094213	20.10674583
2008	214	28.33	18.89	25.74	0.01	791.0035088	488.1866181	50815	12.93525463	19.791718
2008	215	27.78	16.11	24.57	0	881.4526316	403.8918087	50688	12.85409722	19.841906
2008	216	25.56	15	22.65	0	733.6140351	401.7587619	50560	12.76747685	19.05662733
2008	217	27.78	16.67	24.72	0.1	855.0596491	479.2455879	50430	12.72680556	18.76093617
2008	218	24.44	19.44	23.07	0.39	394.4982456	146.635572	50298	12.68159722	19.1827862
2008	219	28.89	16.67	25.53	0.05	962.4561404	530.552428	50164	12.62268519	19.97472977
2008	220	26.67	14.44	23.31	0.1	853.4947368	348.5250954	50029	12.59613426	18.82840133
2008	221	23.89	12.22	20.68	0	712.2807018	435.3575924	49892	12.56101852	17.95311983
2008	222	24.44	13.89	21.54	0.02	690.2175439	512.9065603	49754	12.48988345	17.40192217
2008	223	25	14.44	22.1	0.04	711.6350877	470.5948724	49614	16.5343287	17.440086
2008	224	21.67	14.44	19.68	0	453.9789474	312.5321596	49472	18.60275463	17.01265883
2008	225	24.44	12.78	21.24	0	734.6105263	409.6248125	49330	17.29201389	17.29702883
2008	226	27.78	13.89	23.96	0.55	974.7929825	429.6788924	49186	16.31541667	17.39620883
2008	227	25.56	15.56	22.81	0	708.1122807	329.5958401	49040	15.56831019	17.70935733
2008	228	25.56	12.78	22.04	0	823.9719298	440.5088354	48894	14.91872685	17.56981567
2008	229	25.56	14.44	22.5	0	757.9157895	485.5606204	48746	14.38180556	17.17343333
2008	230	27.22	15	23.86	0	879.6982456	479.3240941	48597	13.95895833	17.34158533
2008	231	29.44	17.22	26.08	0	991.4596491	519.4066383	48446	13.62599537	17.815683
2008	232	26.11	10	21.68	0	957.4807018	374.7148773	48295	13.47032407	18.09006397
2008	233	25.56	11.11	21.58	0	880.4421053	558.3377853	48143	13.41152778	17.01953122
2008	234	29.44	12.78	24.86	0	1168.575439	536.697562	47990	13.26516204	16.91055603
2008	235	30	16.11	26.18	0	1099.087719	528.263379	47836	18.17439815	18.07648504
2008	236	27.78	17.78	25.03	0	798.3508772	487.5682976	47681	18.27844907	18.1742005
2008	237	31.11	18.89	27.75	0.13	1082.968421	468.8788006	47525	17.38733796	18.49916883
2008	238	27.78	12.78	23.65	0	1014.603509	525.5087823	47368	18.86893519	18.91014473
