"Shalehills,"	2012	:	input	for	MTCLIM	v4.3				
MTCLIM	v4.3	OUTPUT	FILE	:	Mon	Jan	16	16:32:50	2012	
	yday	Tmax	Tmin	Tday	prcp	VPD	srad	daylen	SoilW	SoilT
		(degC)	(degC)	(degC)	(cm)	(Pa)	(Wm-2)	(s)	(%)	(deg C)
2008	1	4.44	-2.78	2.46	0.945	162.1754386	107.3576895	32928	22.43286237	2.70644181
2008	2	3.89	-5.56	1.29	0.02	187.1368421	242.3626217	32971	22.45182191	2.43278212
2008	3	-3.33	-11.11	-5.47	0	101.5438596	153.795681	33017	22.44491683	2.05580727
2008	4	-4.44	-10.56	-6.13	0	79.34736842	210.6844795	33066	22.1757048	1.50974273
2008	5	3.33	-9.44	-0.18	0	213.3263158	184.7731816	33119	22.06966314	0.30269122
2008	6	5.56	-0.56	3.88	0.09	153.9578947	216.999156	33175	22.01055176	0.2361847
2008	7	7.78	5	7.01	0.035	91.50175439	201.3661912	33234	22.61795184	0.82031272
2008	8	18.89	6.11	15.38	0.025	564.2736842	215.6980118	33296	22.75374789	2.46195715
2008	9	19.44	8.33	16.39	0.06	537.6280702	150.879084	33362	22.49140902	5.09837599
2008	10	11.67	-0.56	8.31	0	356.7017544	204.7227424	33431	22.31488848	6.3713066
2008	11	7.78	-0.56	5.49	2.36	221.4175439	101.7295765	33503	23.39872183	5.62279454
2008	12	10.56	2.78	8.42	0	250.8	220.641115	33579	22.9789139	4.71345382
2008	13	6.11	-2.22	3.82	0	199.2421053	135.333987	33657	22.76549167	4.71188527
2008	14	3.89	-2.22	2.21	0.12	138.4210526	111.5724702	33738	22.35775968	3.82283113
2008	15	2.78	-2.78	1.25	0	119.7754386	163.3214476	33822	22.14398849	3.27321121
2008	16	-1.11	-2.78	-1.57	0	32.70175439	175.9470937	33909	21.95869504	3.13496967
2008	17	0	-3.33	-0.92	0.57	65.66315789	56.70431483	33999	21.71235602	2.33260406
2008	18	2.22	-2.22	1	0.33	96.6877193	269.1626188	34092	21.6233049	2.14594661
2008	19	2.78	-6.67	0.18	0	173.9508772	105.2589581	34187	21.66180194	1.86789498
2008	20	-1.11	-12.22	-4.17	0	146.877193	205.0519469	34285	21.68214923	1.85294147
2008	21	-10	-13.89	-11.07	0	37.60701754	306.8234165	34386	22.72986699	1.15064935
2008	22	-5	-13.89	-7.44	0	98.44210526	78.45701528	34489	22.35005473	0.30697859
2008	23	2.78	-6.11	0.33	0	167.4526316	314.5387484	34595	22.60412948	-0.16871034
2008	24	-2.78	-7.78	-4.15	0	76.32280702	179.3039219	34703	22.7539344	-0.3033965
2008	25	-2.22	-10	-4.36	0	109.6210526	321.8284598	34814	22.03016899	-0.39144444
2008	26	-3.89	-10	-5.57	0.04	82.45614035	144.0329554	34926	21.71146784	-0.38255599
2008	27	-2.78	-8.33	-4.31	0	82.82807018	171.1772159	35042	21.43348163	-0.27997282
2008	28	-0.56	-5	-1.78	0	80.60350877	214.1984129	35159	21.33210971	-0.52372549
2008	29	2.22	-2.22	1	0.4	96.6877193	60.02176994	35278	21.66916172	-0.4414289
2008	30	5.56	-1.11	3.72	1.5	164.3087719	331.9026836	35400	21.82319847	-0.26376447
2008	31	0.56	-8.89	-2.04	0	149.9578947	310.5629592	35523	22.61056212	-0.10711861
2008	32	1.11	-7.78	-1.33	2.715	149.9017544	46.30497349	35649	22.72909372	-0.03308305
2008	33	2.78	-2.22	1.4	0.005	110.245614	73.32927102	35776	23.39756124	0.09742031
2008	34	1.11	-5.56	-0.72	0	123.1789474	260.4022003	35905	23.21961591	0.29024739
2008	35	6.11	-5	3.06	0.02	238.077193	38.36863137	36036	23.00507107	0.21255188
2008	36	5	0.56	3.78	1.02	115.4596491	80.53543089	36169	22.5631461	0.3763085
2008	37	13.33	3.33	10.58	0.4	351.2280702	78.46806049	36303	22.29120772	0.43350829
2008	38	16.67	1.67	12.54	1.01	536.0421053	45.74489572	36440	22.78592202	0.96848841
2008	39	3.33	-1.11	2.11	0.06	103.8526316	123.2830467	36577	23.12407794	3.39900892
2008	40	2.22	-2.22	1	0.78	96.6877193	138.0326833	36716	23.2456811	2.32110136
2008	41	4.44	-1.67	2.76	0.21	143.4385965	181.0377947	36857	23.4455725	1.84666727
2008	42	-1.11	-16.67	-5.39	0	170.5473684	361.1028676	36999	23.34650658	1.31398769
2008	43	-8.89	-16.67	-11.03	1.91	68.41403509	67.61667071	37143	23.1687145	0.8060912
2008	44	-3.33	-11.67	-5.63	0.57	106.2385965	88.37750422	37287	22.83362265	0.43058033
2008	45	0.56	-7.78	-1.74	0	138.5403509	386.4039751	37433	22.79570318	0.23754411
2008	46	2.22	-7.78	-0.53	0	173.5438596	48.00670552	37581	23.35262095	0.05203693
2008	47	2.78	-11.11	-1.04	0	213.5157895	360.9479711	37729	24.49588406	0.34514664
2008	48	2.22	-10.56	-1.29	0.23	197.9649123	113.6486708	37879	24.22939658	0.48495673
2008	49	8.89	-0.56	6.29	0.44	257.7403509	149.1559073	38029	23.86939698	0.73958468
2008	50	8.33	-4.44	4.82	0	295.9298246	268.2594484	38181	24.61057646	0.86935605
2008	51	-1.11	-10	-3.56	0	128.9964912	278.4670527	38334	24.1182229	0.69158705
2008	52	-3.89	-12.78	-6.33	0	106.4491228	408.2062515	38487	23.65099389	0.40224186
2008	53	-2.22	-12.78	-5.13	1.05	132.2526316	81.46348533	38642	23.47171224	-0.10690947
2008	54	-2.78	-5.56	-3.54	0.08	46.58245614	206.2048044	38798	23.22323909	-0.13284283
2008	55	1.67	-8.89	-1.24	0	172.5333333	423.5156852	38954	22.93714966	-0.05619302
2008	56	5	-8.89	1.18	0	247.7824561	333.055432	39111	22.90303288	-0.18711466
2008	57	2.78	-5	0.64	0.79	153.2701754	48.759836	39269	23.10203226	0.09627004
2008	58	1.67	-3.33	0.29	0.01	102.5754386	224.413843	39428	23.33935958	0.02411674
2008	59	-2.22	-11.67	-4.82	0	124.0421053	367.6338697	39587	23.3043275	0.18776879
2008	60	1.67	-12.22	-2.15	1.565	197.9789474	241.4387501	39747	23.10531594	-0.05002339
2008	61	1.67	-5.56	-0.32	0	135.3192982	267.2369008	39907	23.38590243	-0.40671166
2008	62	4.44	-5.56	1.69	0	200.9473684	350.9771139	40068	23.22005518	-0.28844299
2008	63	15.56	1.67	11.74	2.165	483.3684211	414.2868009	40230	23.34860802	-0.4686171
2008	64	7.78	1.67	6.1	3.805	176.9894737	20.58868093	40392	23.19418515	-0.23929509
2008	65	4.44	-2.78	2.46	0	162.1754386	93.01013439	40555	23.20022083	-0.07480648
2008	66	7.78	-2.78	4.88	1.01	257.2491228	421.6082568	40718	23.17899688	0.39983675
2008	67	7.22	-1.11	4.93	2.03	213.8035088	111.9551392	40882	23.46756237	0.51549117
2008	68	3.33	-7.22	0.43	0	192.8140351	38.96711007	41046	23.48976381	1.489979
2008	69	0	-6.67	-1.83	0	114.4140351	427.5723125	41210	23.19382173	1.48851502
2008	70	6.11	-3.89	3.36	0	223.8807018	307.5047976	41375	23.23491002	1.54289142
2008	71	6.11	1.11	4.74	0.01	136.2807018	266.7002889	41540	23.13220634	0.95541716
2008	72	4.44	-3.33	2.31	0	170.8210526	151.646709	41705	23.12884752	1.0382366
2008	73	13.33	-3.33	8.75	0.015	456.6035088	411.4743253	41870	22.95540018	2.0295602
2008	74	15	3.89	11.94	0.335	414.0701754	323.0455086	42036	22.84922106	1.83976565
2008	75	10	1.11	7.56	0	265.5368421	247.5309227	42202	22.95390461	2.92007832
2008	76	5.56	-3.89	2.96	0	208.5403509	163.6050793	42368	23.15901455	4.35226904
2008	77	7.78	-3.89	4.57	0.1	272.2807018	462.9329948	42534	23.19109983	4.71575436
2008	78	5.56	2.22	4.64	1.52	93.68421053	53.51101848	42701	23.27047014	3.37150701
2008	79	12.78	1.67	9.72	0.21	362.0140351	76.81797187	42867	23.32944194	3.88954679
2008	80	3.89	-2.78	2.06	0	147.677193	336.8751888	43033	23.15680999	3.47199878
2008	81	6.11	-2.78	3.67	1.19	207.922807	468.9779398	43200	22.99001692	4.29381441
2008	82	5.56	-6.11	2.35	0	235.8736842	285.277683	43366	22.87275704	4.14511587
2008	83	6.11	-5.56	2.9	0	244.554386	510.7787885	43533	22.75445745	4.19865571
2008	84	5.56	-4.44	2.81	0	216	376.0483535	43699	22.76624365	2.79009781
2008	85	9.44	-3.89	5.78	0	324.4350877	479.0154337	43865	23.27712112	2.84813416
2008	86	12.22	1.67	9.32	0.125	339.4175439	323.6223883	44032	23.40732736	2.41918802
2008	87	6.67	2.22	5.44	0.615	128.1684211	57.97117517	44198	23.29730035	3.7549652
2008	88	7.22	-2.78	4.47	0	240.3929825	70.15533215	44363	23.14409215	4.94685406
2008	89	7.22	-4.44	4.01	0	262.7508772	531.2154326	44529	22.98450588	4.35373302
2008	90	10	-4.44	6.03	0	348.8912281	497.9753216	44695	22.85585292	3.95438019
2008	91	13.33	4.44	10.89	0.155	325.3473684	225.2769728	44860	22.86006466	3.947374
2008	92	21.11	1.11	15.61	0.005	779.5157895	172.8890394	45025	22.82315461	4.62456932
2008	93	8.33	-2.78	5.28	0	274.5263158	466.8634875	45190	23.75768561	5.57082325
2008	94	9.44	-2.22	6.24	0.9	302.6736842	317.4336773	45354	24.20072526	5.3953
2008	95	11.67	3.33	9.38	0.19	281.5789474	112.3247726	45518	23.96519863	5.7571
2008	96	12.22	4.44	10.08	0	277.5157895	277.5338981	45681	23.71660414	6.9152
2008	97	15	4.44	12.1	0	401.4596491	405.2141564	45845	23.52434562	7.34
2008	98	8.33	5.56	7.57	0	94.65263158	126.1629535	46007	23.30318807	6.8906
2008	99	14.44	6.11	12.15	0	332.6807018	261.7510234	46169	23.5740991	7.3973
2008	100	16.11	6.11	13.36	0	414.5754386	256.6507954	46331	24.07356588	8.5416
2008	101	20.56	6.67	16.74	0.74	649.7052632	479.4604878	46492	24.51124816	10.0367
2008	102	20	11.67	17.71	0.19	459.0105263	143.7465115	46653	24.35706225	10.6805
2008	103	18.33	3.89	14.36	0.225	581.7052632	457.5626642	46813	23.8896313	11.3124
2008	104	8.33	0.56	6.19	0.015	218.6315789	169.5090905	46972	23.6385555	8.9658
2008	105	10.56	-2.22	7.04	0	340.6947368	401.2751692	47131	23.45901233	7.8339
2008	106	15	0	10.88	0	484.5333333	561.5878957	47289	23.37304581	8.131
2008	107	20	2.22	15.11	0	701.6982456	552.2627197	47446	23.86494195	8.9395
2008	108	26.11	7.22	20.92	0	1022.021053	554.4629847	47602	23.56095657	10.3329
2008	109	28.33	10.56	23.44	0	1130.484211	537.8415763	47758	23.34718074	12.0038
2008	110	27.22	12.22	23.1	3.12	984.1192982	416.5839038	47912	23.4833494	12.4873
2008	111	15.56	12.78	14.79	0.24	144.8140351	114.7453709	48066	23.46819109	11.9807
2008	112	21.11	11.67	18.51	0	532.8070175	275.9571123	48219	23.68810491	12.5455
2008	113	22.22	10	18.86	0	666.6666667	413.340583	48370	23.72067003	13.0997
2008	114	23.89	10.56	20.22	0	768.9403509	420.1529441	48521	23.52504112	13.3695
2008	115	22.22	11.11	19.17	0	629.8245614	519.813544	48671	24.48267071	13.5077
2008	116	25	11.11	21.18	2.11	836.3719298	386.4334788	48819	24.21320739	13.3095
2008	117	27.22	10.56	22.64	0.43	1034.203509	392.209431	48966	24.24608009	14.6146
2008	118	19.44	7.22	16.08	2.13	568.5824561	410.8230982	49112	24.18762308	14.5117
2008	119	11.11	5	9.43	0	217.0666667	85.5561443	49257	24.4982409	11.7244
2008	120	13.89	2.78	10.83	0	387.2912281	439.6441772	49401	24.43124562	11.3145
2008	121	12.22	3.33	9.78	0	304.245614	404.569364	49543	24.34235709	10.1017
2008	122	15	3.89	11.94	0	414.0701754	256.0311173	49683	24.20671203	9.5681
2008	123	23.33	9.44	19.51	0.66	761.6350877	312.3472894	49823	24.36241013	11.5045
2008	124	19.44	10	16.85	0.82	484.7017544	286.4218775	49960	24.65154213	13.0122
2008	125	16.67	2.78	12.85	0	516.7719298	382.8252355	50096	24.41410709	12.482
2008	126	20.56	5.56	16.43	0	674.7789474	539.717107	50231	24.12170832	12.2118
2008	127	22.78	8.33	18.81	0	752.9473684	415.900959	50363	23.92661523	12.5585
2008	128	26.11	12.78	22.44	0.21	870.1122807	487.7954253	50495	23.68962094	12.228
2008	129	21.11	6.67	17.14	0.99	684.2807018	207.1066688	50624	23.68339304	13.45393727
2008	130	12.22	7.78	11	0	179.5649123	103.0653977	50751	23.66613596	12.42737358
2008	131	18.33	6.67	15.12	0.05	518.9263158	380.0835348	50877	23.21340848	11.92313704
2008	132	16.11	1.11	11.99	2.35	518.3789474	223.787451	51000	22.80074403	11.17284729
2008	133	10	2.22	7.86	0	242.4	136.5087242	51122	22.03464572	9.69537776
2008	134	22.22	7.22	18.1	0.015	743.0105263	573.336625	51241	21.70284333	10.69192986
2008	135	21.67	10	18.46	0.115	628.645614	286.9728961	51358	21.73207372	11.40718866
2008	136	22.78	8.89	18.96	1.31	738.0280702	412.6879141	51473	21.60811411	12.67593647
2008	137	11.11	5.56	9.58	0.02	201.5017544	64.68117319	51586	21.21717763	11.70092579
2008	138	18.89	6.67	15.53	0.61	550.5192982	215.1321547	51697	21.68857529	11.0330372
2008	139	15.56	4.44	12.5	0.05	428.0421053	236.0624843	51805	22.18335122	10.98326188
2008	140	12.78	4.44	10.49	0.98	301.1508772	337.4939703	51910	21.98974167	10.40959086
2008	141	12.78	6.11	10.94	0.47	256.322807	149.0528896	52014	21.89338815	9.8043397
2008	142	15	6.11	12.56	0.12	359.3473684	291.2318379	52114	21.7171656	9.81071847
2008	143	13.33	6.67	11.5	0	264.9403509	377.579158	52212	20.77339497	10.479
2008	144	18.89	6.11	15.38	0	564.2736842	488.9290166	52308	20.68110857	10.6269
2008	145	21.67	6.11	17.39	0	731.9578947	530.3457634	52400	21.02097882	11.6237
2008	146	23.89	9.44	19.92	0	801.9157895	583.9905125	52490	20.6694181	12.2053
2008	147	29.44	13.89	25.17	0	1131.242105	490.009624	52577	20.02083722	13.4837
2008	148	27.22	7.22	21.72	0	1109.866667	328.5980403	52662	20.05465056	15.0449
2008	149	19.44	6.11	15.78	0	596.3157895	585.2339268	52743	19.8036862	13.4458
2008	150	24.44	8.33	20.01	0	871.8105263	570.3446546	52821	19.70674752	12.6826
2008	151	26.11	12.22	22.29	0.22	889.5859649	459.8854545	52896	20.27276672	13.0731
2008	152	27.22	17.78	24.62	0	745.4877193	352.9051143	52969	20.08468141	14.474
2008	153	25.56	10	21.28	0	913.1789474	486.2564576	53038	19.76327191	15.1535
2008	154	25	13.33	21.79	0	757.5298246	542.0388867	53103	19.46188689	14.1676
2008	155	27.78	15	24.26	2.01	930.4982456	379.1178573	53166	18.38277808	14.4187
2008	156	21.11	17.78	20.19	0.15	232.4	90.04834194	53225	18.64758274	15.2372
2008	157	28.33	19.44	25.89	0	758.1894737	345.9921548	53281	18.41790954	16.6388
2008	158	32.78	20.56	29.42	0	1181.515789	525.1338733	53334	18.05957077	18.3381
2008	159	33.33	23.33	30.58	0	1067.480702	518.1060825	53383	17.5825114	18.9319
2008	160	32.22	22.78	29.62	0	969.2842105	429.2805031	53429	17.20444083	19.439
2008	161	33.89	21.67	30.53	1.09	1251.333333	544.4346842	53471	18.76809314	19.7055
2008	162	32.22	15.56	27.64	0.11	1357.122807	410.0632218	53510	19.17457065	19.1786
2008	163	28.33	16.11	24.97	0	934.1684211	575.5212714	53546	18.75570961	18.2842
2008	164	30.56	17.78	27.04	0.04	1079.873684	545.3852399	53577	18.35064698	18.0608
2008	165	31.67	19.44	28.31	0.065	1115.017544	437.034623	53606	18.26314781	18.3035
2008	166	25	15.56	22.4	0.005	661.0736842	181.2395301	53630	17.12025534	18.4647
2008	167	27.22	16.67	24.32	0.68	803.0315789	548.206464	53651	16.76559638	18.1114
2008	168	26.67	13.89	23.15	0.82	875.8596491	355.7539921	53669	17.66555158	17.3479
2008	169	19.44	13.33	17.76	0.14	352.6877193	299.6079692	53682	18.67489779	15.8738
2008	170	18.89	8.89	16.14	0	487.4385965	230.6295793	53693	18.24896922	14.9981
2008	171	20	11.11	17.56	0	480.1614035	342.9473361	53699	17.8349594	14.2679
2008	172	26.11	13.33	22.6	0	849.5789474	471.4200588	53702	17.03539826	15.091
2008	173	28.33	15	24.67	1.01	982.3789474	515.138638	53701	16.38916945	16.1344
2008	174	26.67	15.56	23.61	0.03	805.2491228	539.7242811	53696	16.22145624	17.0247
2008	175	25.56	12.78	22.04	0.1	823.9719298	482.1374236	53688	16.79614446	16.8817
2008	176	25	13.33	21.79	0	757.5298246	423.956815	53676	16.51346575	16.26958909
2008	177	27.22	15	23.86	0.15	879.6982456	441.7024282	53661	15.6413441	16.56625418
2008	178	28.33	18.33	25.58	1.2	822.3719298	305.0543614	53641	15.87012655	17.48824787
2008	179	26.67	19.44	24.68	0	595.7403509	276.8843134	53619	15.84608388	18.06976164
2008	180	28.89	18.89	26.14	0.04	847.0035088	350.0097029	53592	15.43183429	19.1657
2008	181	27.22	17.22	24.47	0.14	774.9263158	308.2490012	53562	14.27014638	18.4267
2008	182	25.56	15.56	22.81	0	708.1122807	417.4633376	53529	13.9962467	18.1809
2008	183	22.78	13.33	20.18	0	584.9122807	300.6619244	53491	13.70577061	17.3705
2008	184	27.22	15	23.86	0.02	879.6982456	560.1282857	53451	13.39907778	17.0144
2008	185	25.56	18.33	23.57	0.02	561.3684211	231.8553748	53407	13.64835846	16.9899
2008	186	23.89	17.78	22.21	2.12	450.7157895	199.8697127	53359	13.50663522	17.2932
2008	187	24.44	16.11	22.15	0	587.5438596	256.6897839	53308	13.48462162	17.5128
2008	188	27.78	17.22	24.88	0.01	827.3754386	370.6546738	53254	15.33927766	18.163
2008	189	27.22	18.89	24.93	0	682.4421053	297.1433942	53196	16.20220706	18.9042
2008	190	30.56	18.89	27.35	0.44	1022.140351	501.4656629	53135	16.25071218	19.4783
2008	191	26.67	16.11	23.76	0	779.2982456	190.4580091	53071	16.40886111	19.3417
2008	192	26.67	15	23.46	0	829.9649123	565.0716361	53004	16.02905286	18.8821
2008	193	28.33	16.67	25.12	0	908.1964912	471.9697353	52933	15.00846046	18.3417
2008	194	31.11	19.44	27.9	0.33	1052.449123	520.0338063	52860	14.86538813	19.2777
2008	195	27.78	17.22	24.88	0	827.3754386	355.3178675	52783	14.70861912	19.9216
2008	196	26.67	15.56	23.61	0	805.2491228	522.2584862	52703	14.69547795	19.2785
2008	197	28.33	16.11	24.97	0	934.1684211	560.3976055	52620	14.17098353	18.4115
2008	198	31.11	17.22	27.29	0	1166.105263	557.7513277	52535	14.42666693	18.6985
2008	199	31.67	20	28.46	0.12	1083.508772	438.8623918	52446	14.48174819	19.5131
2008	200	32.22	21.11	29.17	0	1081.25614	413.3001242	52355	13.56566021	20.2552
2008	201	31.67	20	28.46	0.385	1083.508772	517.5354854	52261	14.19664962	20.5619
2008	202	32.22	18.89	28.56	0.005	1208.421053	409.5625719	52164	15.06528973	20.1119
2008	203	29.44	18.33	26.39	0.4	934.6666667	405.7065783	52065	13.71151917	20.2837
2008	204	28.89	19.44	26.29	1.29	814.6315789	414.7642553	51963	14.9115811	20.2132
2008	205	23.33	15	21.04	1.04	552.8491228	134.2814223	51858	15.32208169	19.136
2008	206	25	14.44	22.1	0	711.6350877	347.1107418	51751	14.1507067	18.1667
2008	207	27.78	15.56	24.42	0	906.5894737	534.5950002	51642	14.59395109	18.37113238
2008	208	28.33	18.33	25.58	0	822.3719298	433.7922375	51530	14.43511429	18.89419152
2008	209	27.22	15.56	24.01	0	855.3824561	487.9174592	51417	13.56674398	18.8648
2008	210	28.89	17.22	25.68	0	935.6210526	493.0210721	51300	14.17446383	18.6252
2008	211	30	17.78	26.64	0.52	1021.207018	475.7485444	51182	14.0187764	19.1446
2008	212	29.44	18.33	26.39	0	934.6666667	331.2877091	51062	13.69232976	19.0567
2008	213	28.89	17.78	25.83	0	907.4596491	465.3030487	50939	13.5732024	19.8767
2008	214	28.33	18.89	25.74	0.01	791.0035088	488.1866181	50815	13.46253697	19.5757
2008	215	27.78	16.11	24.57	0	881.4526316	403.8918087	50688	13.24605857	19.5663
2008	216	25.56	15	22.65	0	733.6140351	401.7587619	50560	13.02556115	18.7858
2008	217	27.78	16.67	24.72	0.1	855.0596491	479.2455879	50430	13.02352204	18.5592
2008	218	24.44	19.44	23.07	0.39	394.4982456	146.635572	50298	13.33310692	18.8745
2008	219	28.89	16.67	25.53	0.05	962.4561404	530.552428	50164	13.21327865	19.74
2008	220	26.67	14.44	23.31	0.1	853.4947368	348.5250954	50029	12.67940306	18.6009
2008	221	23.89	12.22	20.68	0	712.2807018	435.3575924	49892	12.971409	17.7787
2008	222	24.44	13.89	21.54	0.02	690.2175439	512.9065603	49754	13.03277719	17.4636
2008	223	25	14.44	22.1	0.04	711.6350877	470.5948724	49614	12.98293672	17.3252
2008	224	21.67	14.44	19.68	0	453.9789474	312.5321596	49472	13.58438197	16.938
2008	225	24.44	12.78	21.24	0	734.6105263	409.6248125	49330	14.05792775	17.2758
2008	226	27.78	13.89	23.96	0.55	974.7929825	429.6788924	49186	14.3278417	17.4137
2008	227	25.56	15.56	22.81	0	708.1122807	329.5958401	49040	14.30159717	17.7577
2008	228	25.56	12.78	22.04	0	823.9719298	440.5088354	48894	14.08155389	17.6398
2008	229	25.56	14.44	22.5	0	757.9157895	485.5606204	48746	13.97534869	17.2314
2008	230	27.22	15	23.86	0	879.6982456	479.3240941	48597	13.75831424	17.4301
2008	231	29.44	17.22	26.08	0	991.4596491	519.4066383	48446	12.97024976	17.5426
2008	232	26.11	10	21.68	0	957.4807018	374.7148773	48295	12.51460892	18.17088083
2008	233	25.56	11.11	21.58	0	880.4421053	558.3377853	48143	12.40697662	17.2790033
2008	234	29.44	12.78	24.86	0	1168.575439	536.697562	47990	12.25788883	16.8994142
2008	235	30	16.11	26.18	0	1099.087719	528.263379	47836	15.002515	18.09924264
2008	236	27.78	17.78	25.03	0	798.3508772	487.5682976	47681	15.43893596	18.1656
2008	237	31.11	18.89	27.75	0.13	1082.968421	468.8788006	47525	15.15793269	17.8722
2008	238	27.78	12.78	23.65	0	1014.603509	525.5087823	47368	16.5070038	19.12476837
2008	239	26.11	13.33	22.6	0.003895833	849.5789474	521.6431053	47210	18.04322225	17.93329779
2008	240	26.67	13.89	23.15	0.634125	875.8596491	430.7492561	47052	18.112247	18.0577
2008	241	17.78	15.56	17.17	0.228345833	133.9719298	84.78493592	46893	17.97716697	16.794
2008	242	21.11	16.67	19.89	0	298.2175439	151.1140497	46734	17.69444287	17.1087
2008	243	27.22	12.22	23.1	0	984.1192982	303.0324007	46573	17.37070562	18.1899
2008	244	27.22	13.33	23.4	0	945.6491228	536.7217159	46413	17.0157996	17.8624
2008	245	26.67	12.78	22.85	0	917.2561404	540.0980303	46251	16.67870951	17.6892
